Frequency(Hz),Magnitude(dB)
11.804,-18.477697
11.929,-18.477778
12.056,-18.452396
12.184,-18.422141
12.314,-18.390051
12.445,-18.356275
12.578,-18.320993
12.711,-18.284365
12.847,-18.246553
12.983,-18.207596
13.122,-18.167337
13.261,-18.125597
13.402,-18.082348
13.545,-18.037755
13.689,-17.992001
13.835,-17.945244
13.982,-17.897625
14.131,-17.849264
14.281,-17.800074
14.433,-17.749897
14.587,-17.698575
14.742,-17.646141
14.899,-17.592821
15.057,-17.538852
15.217,-17.484369
15.379,-17.429344
15.543,-17.37373
15.708,-17.317511
15.875,-17.260728
16.044,-17.20344
16.215,-17.145744
16.388,-17.087824
16.562,-17.029882
16.738,-16.972004
16.916,-16.914094
17.096,-16.856039
17.278,-16.797875
17.462,-16.739755
17.648,-16.681854
17.836,-16.624181
18.025,-16.566696
18.217,-16.509396
18.411,-16.452472
18.607,-16.39614
18.805,-16.340627
19.005,-16.286168
19.207,-16.232913
19.412,-16.180716
19.618,-16.129347
19.827,-16.078911
20.038,-16.029788
20.251,-15.982297
20.467,-15.936542
20.684,-15.892593
20.905,-15.850615
21.127,-15.810892
21.352,-15.773716
21.579,-15.739194
21.809,-15.707305
22.041,-15.678068
22.275,-15.651615
22.512,-15.62813
22.752,-15.607884
22.994,-15.591256
23.239,-15.578483
23.486,-15.568523
23.736,-15.559523
23.988,-15.549792
24.244,-15.538815
24.501,-15.526641
24.762,-15.513255
25.026,-15.498593
25.292,-15.482624
25.561,-15.465477
25.833,-15.447317
26.108,-15.428224
26.386,-15.407979
26.667,-15.386342
26.95,-15.363412
27.237,-15.339604
27.527,-15.315219
27.82,-15.290166
28.116,-15.264304
28.415,-15.237601
28.717,-15.21021
29.023,-15.182299
29.332,-15.154043
29.644,-15.125585
29.959,-15.09707
30.278,-15.068611
30.6,-15.040118
30.926,-15.011436
31.255,-14.982754
31.587,-14.954464
31.924,-14.926868
32.263,-14.90002
32.607,-14.873952
32.953,-14.848738
33.304,-14.824514
33.658,-14.801429
34.017,-14.779747
34.379,-14.759871
34.744,-14.742795
35.114,-14.734944
35.488,-14.73818
35.865,-14.750969
36.247,-14.766748
36.633,-14.784147
37.022,-14.802986
37.416,-14.822934
37.815,-14.843675
38.217,-14.865251
38.624,-14.887885
39.035,-14.911769
39.45,-14.936799
39.87,-14.962724
40.294,-14.989278
40.723,-15.016317
41.156,-15.043746
41.594,-15.071455
42.036,-15.099169
42.484,-15.126549
42.936,-15.15329
43.393,-15.179262
43.854,-15.204384
44.321,-15.228493
44.793,-15.251273
45.269,-15.272393
45.751,-15.291673
46.238,-15.309093
46.73,-15.325008
47.227,-15.339759
47.73,-15.353579
48.237,-15.366359
48.751,-15.377866
49.269,-15.388074
49.794,-15.397277
50.323,-15.405829
50.859,-15.41389
51.4,-15.421478
51.947,-15.428589
52.5,-15.435227
53.058,-15.441371
53.623,-15.447165
54.194,-15.453219
54.77,-15.460233
55.353,-15.468377
55.942,-15.477187
56.537,-15.486239
57.139,-15.49573
57.747,-15.505993
58.361,-15.516414
58.982,-15.526129
59.61,-15.534911
60.244,-15.54359
60.885,-15.552644
61.533,-15.561572
62.188,-15.569918
62.85,-15.577675
63.518,-15.584946
64.194,-15.591855
64.877,-15.598537
65.568,-15.605114
66.265,-15.611564
66.97,-15.617809
67.683,-15.623816
68.403,-15.629812
69.131,-15.63614
69.867,-15.64319
70.61,-15.650948
71.361,-15.6589
72.121,-15.666516
72.888,-15.673572
73.664,-15.680239
74.448,-15.68678
75.24,-15.693479
76.04,-15.700468
76.849,-15.707605
77.667,-15.714702
78.494,-15.721709
79.329,-15.728889
80.173,-15.73658
81.026,-15.744967
81.888,-15.754105
82.759,-15.763963
83.64,-15.774649
84.53,-15.786502
85.43,-15.799906
86.339,-15.814702
87.257,-15.830054
88.186,-15.8451
89.124,-15.859482
90.072,-15.873118
91.031,-15.886011
91.999,-15.898474
92.978,-15.910615
93.968,-15.921571
94.968,-15.930683
95.978,-15.937962
96.999,-15.9441
98.032,-15.949166
99.075,-15.953315
100.129,-15.956883
101.194,-15.960201
102.271,-15.963572
103.359,-15.967291
104.459,-15.971492
105.571,-15.975467
106.694,-15.977828
107.829,-15.977776
108.977,-15.975747
110.136,-15.972953
111.308,-15.970287
112.492,-15.968565
113.689,-15.968698
114.899,-15.971727
116.122,-15.979166
117.357,-15.9936
118.606,-16.015399
119.868,-16.043453
121.144,-16.075543
122.433,-16.111225
123.735,-16.14997
125.052,-16.190828
126.383,-16.232654
127.727,-16.274329
129.087,-16.316742
130.46,-16.361298
131.848,-16.409594
133.251,-16.461605
134.669,-16.516717
136.102,-16.573508
137.55,-16.630933
139.014,-16.689791
140.493,-16.754393
141.988,-16.826921
143.499,-16.90756
145.026,-16.99287
146.569,-17.081461
148.129,-17.17175
149.705,-17.261869
151.298,-17.349546
152.908,-17.432312
154.535,-17.508832
156.179,-17.579171
157.841,-17.646645
159.52,-17.715955
161.218,-17.79141
162.933,-17.871241
164.667,-17.949459
166.419,-18.021333
168.19,-18.09648
169.979,-18.191917
171.788,-18.321002
173.616,-18.477629
175.463,-18.648043
177.33,-18.818504
179.217,-18.975855
181.124,-19.109197
183.052,-19.217066
184.999,-19.306194
186.968,-19.381828
188.957,-19.448082
190.968,-19.509525
193.0,-19.570886
195.054,-19.63435
197.129,-19.700737
199.227,-19.76756
201.347,-19.834286
203.489,-19.900566
205.654,-19.967072
207.843,-20.032379
210.054,-20.094716
212.289,-20.153383
214.548,-20.20922
216.831,-20.263824
219.138,-20.316967
221.47,-20.367944
223.827,-20.418402
226.208,-20.470731
228.615,-20.520515
231.048,-20.56096
233.506,-20.591891
235.991,-20.62158
238.502,-20.65682
241.04,-20.696033
243.605,-20.737282
246.197,-20.781676
248.816,-20.832635
251.464,-20.890229
254.14,-20.948242
256.844,-20.996785
259.577,-21.030619
262.339,-21.052409
265.13,-21.071371
267.952,-21.094865
270.803,-21.125444
273.684,-21.162892
276.596,-21.204377
279.54,-21.243055
282.514,-21.273323
285.52,-21.295746
288.558,-21.31556
291.629,-21.334823
294.732,-21.351955
297.868,-21.366734
301.037,-21.381946
304.241,-21.399855
307.478,-21.417588
310.75,-21.434773
314.056,-21.456299
317.398,-21.491235
320.775,-21.540859
324.189,-21.595595
327.638,-21.634396
331.124,-21.647033
334.648,-21.63989
338.209,-21.63411
341.807,-21.643092
345.444,-21.667317
349.12,-21.695167
352.835,-21.714775
356.589,-21.723445
360.384,-21.72387
364.218,-21.711509
368.094,-21.684694
372.011,-21.650957
375.969,-21.620765
379.97,-21.596836
384.013,-21.579733
388.099,-21.569437
392.228,-21.564618
396.402,-21.557858
400.62,-21.539411
404.883,-21.509979
409.191,-21.479325
413.545,-21.449445
417.945,-21.421482
422.393,-21.398396
426.887,-21.381651
431.429,-21.368072
436.02,-21.347693
440.66,-21.324535
445.348,-21.32058
450.087,-21.346444
454.876,-21.388908
459.717,-21.421081
464.608,-21.440482
469.552,-21.458501
474.548,-21.48085
479.598,-21.49952
484.701,-21.507017
489.858,-21.506409
495.071,-21.505173
500.339,-21.509064
505.663,-21.520842
511.043,-21.544713
516.481,-21.591931
521.977,-21.654939
527.531,-21.708815
533.144,-21.733272
538.817,-21.738768
544.55,-21.745302
550.345,-21.759336
556.201,-21.776287
562.119,-21.795356
568.1,-21.813026
574.145,-21.822253
580.255,-21.82482
586.429,-21.839442
592.669,-21.874304
598.975,-21.910642
605.349,-21.938363
611.79,-21.975861
618.3,-22.027378
624.879,-22.078137
631.528,-22.11864
638.248,-22.156136
645.039,-22.18006
651.903,-22.192123
658.839,-22.213572
665.85,-22.241292
672.935,-22.253375
680.095,-22.252674
687.332,-22.260433
694.645,-22.279758
702.037,-22.288704
709.507,-22.281366
717.057,-22.247706
724.686,-22.221615
732.398,-22.213631
740.191,-22.206584
748.067,-22.175199
756.027,-22.137148
764.071,-22.140835
772.201,-22.15047
780.418,-22.144688
788.722,-22.114223
797.115,-22.107162
805.597,-22.107725
814.169,-22.098826
822.832,-22.077645
831.587,-22.064138
840.436,-22.062298
849.379,-22.055574
858.417,-22.033609
867.551,-22.006085
876.782,-21.968635
886.111,-21.925247
895.54,-21.865355
905.069,-21.802304
914.7,-21.749051
924.433,-21.696977
934.269,-21.650664
944.21,-21.6079
954.257,-21.572433
964.411,-21.524393
974.673,-21.459067
985.044,-21.399705
995.526,-21.360483
1006.119,-21.325401
1016.824,-21.265376
1027.644,-21.179725
1038.579,-21.084778
1049.63,-21.000053
1060.799,-20.925379
1072.086,-20.84649
1083.494,-20.752277
1095.023,-20.646639
1106.674,-20.546298
1118.45,-20.465318
1130.351,-20.40123
1142.379,-20.328715
1154.534,-20.241798
1166.819,-20.153933
1179.235,-20.07223
1191.783,-19.987787
1204.464,-19.895694
1217.28,-19.797064
1230.233,-19.695024
1243.323,-19.598756
1256.553,-19.520757
1269.923,-19.445362
1283.436,-19.371371
1297.093,-19.29301
1310.895,-19.221883
1324.843,-19.149109
1338.94,-19.08642
1353.188,-19.025168
1367.586,-18.960806
1382.138,-18.881174
1396.845,-18.801952
1411.708,-18.722177
1426.73,-18.666142
1441.911,-18.605182
1457.254,-18.553799
1472.76,-18.500577
1488.431,-18.450385
1504.269,-18.404088
1520.275,-18.33314
1536.452,-18.261432
1552.801,-18.168178
1569.323,-18.09837
1586.022,-18.030592
1602.898,-17.96952
1619.954,-17.907602
1637.191,-17.856241
1654.612,-17.804219
1672.218,-17.751234
1690.011,-17.676752
1707.994,-17.60362
1726.168,-17.525343
1744.536,-17.462995
1763.099,-17.396595
1781.859,-17.342016
1800.819,-17.284128
1819.981,-17.213879
1839.347,-17.140113
1858.918,-17.053884
1878.698,-16.945874
1898.689,-16.794226
1918.892,-16.61823
1939.31,-16.408939
1959.946,-16.154362
1980.801,-15.883291
2001.878,-15.623912
2023.179,-15.397824
2044.707,-15.192798
2066.464,-15.025089
2088.452,-14.886541
2110.674,-14.757758
2133.133,-14.621718
2155.831,-14.475502
2178.771,-14.30793
2201.954,-14.140317
2225.384,-13.96585
2249.063,-13.805451
2272.995,-13.631235
2297.181,-13.456925
2321.624,-13.276412
2346.328,-13.10387
2371.294,-12.940775
2396.526,-12.776587
2422.027,-12.621981
2447.798,-12.465326
2473.844,-12.316272
2500.168,-12.168991
2526.771,-12.011932
2553.657,-11.871824
2580.83,-11.743916
2608.291,-11.616897
2636.045,-11.475684
2664.094,-11.339653
2692.442,-11.218387
2721.091,-11.097941
2750.045,-10.98638
2779.307,-10.886463
2808.881,-10.80488
2838.769,-10.723259
2868.975,-10.65956
2899.503,-10.608183
2930.355,-10.577302
2961.536,-10.567892
2993.049,-10.577983
3024.896,-10.632113
3057.083,-10.72325
3089.612,-10.843374
3122.488,-10.969201
3155.713,-11.112641
3189.292,-11.266343
3223.228,-11.448377
3257.525,-11.621808
3292.187,-11.799055
3327.218,-11.984152
3362.621,-12.201208
3398.402,-12.464422
3434.563,-12.74066
3471.108,-13.043491
3508.043,-13.358821
3545.371,-13.676453
3583.096,-13.976785
3621.222,-14.269507
3659.754,-14.580321
3698.696,-14.883178
3738.052,-15.170338
3777.827,-15.453878
3818.026,-15.754784
3858.652,-16.033831
3899.71,-16.314083
3941.206,-16.582994
3983.142,-16.869125
4025.525,-17.140205
4068.36,-17.410717
4111.649,-17.68947
4155.4,-17.963068
4199.616,-18.222641
4244.302,-18.423566
4289.464,-18.594469
4335.106,-18.724678
4381.235,-18.811781
4427.854,-18.848508
4474.969,-18.84828
4522.585,-18.824066
4570.708,-18.756887
4619.343,-18.665433
4668.496,-18.532459
4718.171,-18.382648
4768.376,-18.223622
4819.114,-18.061789
4870.393,-17.886927
4922.216,-17.72156
4974.592,-17.579321
5027.524,-17.494388
5081.021,-17.441552
5135.085,-17.467146
5189.726,-17.549407
5244.948,-17.691839
5300.757,-17.882464
5357.161,-18.115935
5414.164,-18.381386
5471.774,-18.669384
5529.997,-18.968855
5588.839,-19.301332
5648.308,-19.627273
5708.409,-19.968452
5769.15,-20.301159
5830.538,-20.629386
5892.578,-20.969606
5955.279,-21.310863
6018.646,-21.672401
6082.688,-22.023883
6147.412,-22.379168
6212.824,-22.737303
6278.932,-23.070418
6345.744,-23.39914
6413.267,-23.689838
6481.507,-23.954312
6550.475,-24.16713
6620.176,-24.343751
6690.619,-24.48274
6761.811,-24.566684
6833.76,-24.584348
6906.476,-24.518523
6979.965,-24.319043
7054.236,-23.991214
7129.297,-23.494012
7205.157,-22.914712
7281.825,-22.229581
7359.308,-21.518859
7437.615,-20.720459
7516.756,-19.850325
7596.739,-18.814062
7677.572,-17.700963
7759.267,-16.496404
7841.83,-15.267295
7925.271,-13.971065
8009.601,-12.683222
8094.828,-11.406799
8180.962,-10.085221
8268.013,-8.795734
8355.989,-7.477499
8444.902,-6.272951
8534.761,-5.282906
8625.576,-4.639985
8717.357,-4.45505
8810.115,-4.75198
8903.86,-5.489543
8998.603,-6.526787
9094.354,-7.690112
9191.123,-8.87711
9288.922,-9.992396
9387.762,-11.041729
9487.653,-12.015948
9588.607,-12.868968
9690.636,-13.640861
9793.75,-14.302885
9897.962,-14.877018
10003.282,-15.357721
10109.723,-15.748088
10217.297,-16.079697
10326.015,-16.35836
10435.89,-16.5853
10546.934,-16.755265
10659.16,-16.867025
10772.58,-16.94982
10887.206,-16.99453
11003.053,-16.997228
11120.132,-16.932813
11238.457,-16.807615
11358.041,-16.607253
11478.897,-16.306875
11601.04,-15.896729
11724.481,-15.361051
11849.237,-14.646523
11975.32,-13.723194
12102.745,-12.545349
12231.525,-11.188916
12361.677,-9.879428
12493.212,-9.069504
12626.147,-9.087144
12760.497,-10.03704
12896.277,-11.779134
13033.501,-13.883131
13172.186,-15.917026
13312.346,-17.724827
13453.997,-19.332406
13597.155,-20.762801
13741.838,-22.094617
13888.059,-23.325133
14035.836,-24.418168
14185.187,-25.350328
14336.125,-26.151831
14488.67,-26.883722
14642.839,-27.546238
14798.647,-28.165161
14956.113,-28.696483
15115.256,-29.180655
15276.091,-29.671564
15438.638,-30.378118
15602.915,-31.410982
15768.939,-32.69504
15936.73,-33.856277
16106.307,-34.612783
16277.688,-34.894153
16450.893,-34.831055
16625.939,-34.549207
16802.85,-34.264923
16981.643,-34.268589
17162.336,-34.409112
17344.955,-34.258542
17529.516,-33.475675
17716.039,-32.566958
17904.549,-32.147467
18095.064,-32.584913
18287.607,-34.056726
18482.199,-36.446862
18678.859,-39.303493
18877.615,-41.910305
19078.484,-44.163325
19281.49,-46.181079
19486.656,-47.963748
19694.008,-49.362761
19903.563,-50.18989
20115.35,-53.75299
20329.389,-53.176596
20545.705,-52.372724
20764.324,-51.653514
20985.27,-51.243385
21208.564,-50.970004
21434.236,-50.759548
21662.311,-50.549781
21892.811,-50.383661
22125.764,-50.186448
22361.195,-50.106618
22599.131,-50.159573
22839.6,-50.767983
23082.627,-52.127086
23328.24,-54.747312
23576.467,-58.485657
23827.334,-62.052368
